#                                                     Mon Jul 29 20:42:42 2019
#          I------------------------------------------------------------------------------------------------------------------------I
#          I                                                                                                                        I
#          I      BC_GALAXEV  ---  MODEL PARAMETERS:   Generic file name for this model = cb2018_z030_chab_hr_smiles_ssp            I
#          I                                                                                                                        I
#          I      TRACKS: Padova 2013 + Marigo 2013, X=0.668, Y=0.302, Z=0.030                                                      I
#          I                                                                                                                        I
#          I      S.F.R.: SSP = Zero Length Burst at t = 0                                                                          I
#          I                                                                                                                        I
#          I                                                                                                                        I
#          I      I.M.F.: Lognormal + power law                                                                                     I
#          I                                                                      mass in      number                               I
#          I                                                  from m     to m     segment    of stars      c                        I
#          I                                        lognormal   0.10     1.00      0.4057      1.3076                               I
#          I                                          x=1.3     1.00   100.00      0.5943      0.1827                               I
#          I                                                                                                                        I
#          I                                                           totals      1.0000      1.4903  0.6710 Mo/star               I
#          I                                                                                                                        I
#          I                                                                                                                        I
#          I                                                                                                                        I
#          I                                                                                                                        I
#          I      LISTED: Rest frame properties                                                                                     I
#          I                                                                                                                        I
#          I                                                                                                                        I
#          I                              (C) 1995-2017 G. Bruzual A. & S. Charlot - All Rights Reserved                            I
#          I------------------------------------------------------------------------------------------------------------------------I
#
#    (1)       (2)      (3)      (4)      (5)      (6)      (7)      (8)      (9)      (10)     (11)     (12)     (13)     (14)     (15)     (16)     (17)     (18)     (19)     (20)     (21)     (22)
#
# Index_No.      1:       2:       3:       4:       5:       6:       7:       8:       9:      10:      11:      12:      13:      14:      15:      16:      17:      18:      19:      20:      21:
# log-age      CN_1     CN_2   Ca4227    G4300   Fe4383   Ca4455   Fe4531   Fe4668    Hbeta   Fe5015     Mg_1     Mg_2     Mg-b   Fe5270   Fe5335   Fe5406   Fe5709   Fe5782     Na-D    TiO_1    TiO_2
#   (yr)      (mag)    (mag)     (A)      (A)      (A)      (A)      (A)      (A)      (A)      (A)     (mag)    (mag)     (A)      (A)      (A)      (A)      (A)      (A)      (A)     (mag)    (mag)
  4.000000  -0.1170  -0.0454   0.0819  -1.7782   0.7660   1.3361   0.2127   0.0745   5.9613   0.8901   0.0073   0.0050  -0.3441   0.2484   0.5992   0.1873  -0.0039   0.0036  -0.0421   0.0099   0.0067
  4.301030  -0.1170  -0.0454   0.0819  -1.7782   0.7660   1.3361   0.2127   0.0745   5.9613   0.8901   0.0073   0.0050  -0.3441   0.2484   0.5992   0.1873  -0.0039   0.0036  -0.0421   0.0099   0.0067
  4.477121  -0.1170  -0.0454   0.0819  -1.7782   0.7660   1.3361   0.2127   0.0745   5.9613   0.8901   0.0073   0.0050  -0.3441   0.2484   0.5992   0.1873  -0.0039   0.0036  -0.0421   0.0099   0.0067
  4.602060  -0.1170  -0.0454   0.0819  -1.7782   0.7660   1.3361   0.2127   0.0745   5.9613   0.8901   0.0073   0.0050  -0.3441   0.2484   0.5992   0.1873  -0.0039   0.0036  -0.0421   0.0099   0.0067
  4.698970  -0.1170  -0.0454   0.0819  -1.7782   0.7660   1.3361   0.2127   0.0745   5.9613   0.8901   0.0073   0.0050  -0.3441   0.2484   0.5992   0.1873  -0.0039   0.0036  -0.0421   0.0099   0.0067
  4.778151  -0.1170  -0.0454   0.0819  -1.7782   0.7660   1.3361   0.2127   0.0745   5.9613   0.8901   0.0073   0.0050  -0.3441   0.2484   0.5992   0.1873  -0.0039   0.0036  -0.0421   0.0099   0.0067
  4.845098  -0.1170  -0.0454   0.0819  -1.7782   0.7660   1.3360   0.2128   0.0745   5.9613   0.8901   0.0073   0.0050  -0.3441   0.2484   0.5992   0.1873  -0.0039   0.0036  -0.0421   0.0099   0.0067
  4.903090  -0.1169  -0.0454   0.0819  -1.7783   0.7662   1.3362   0.2127   0.0745   5.9610   0.8901   0.0073   0.0050  -0.3442   0.2483   0.5992   0.1873  -0.0039   0.0036  -0.0422   0.0099   0.0067
  4.954243  -0.1169  -0.0454   0.0819  -1.7783   0.7665   1.3365   0.2125   0.0746   5.9606   0.8901   0.0073   0.0050  -0.3444   0.2482   0.5992   0.1872  -0.0040   0.0035  -0.0423   0.0099   0.0067
  5.000000  -0.1169  -0.0454   0.0818  -1.7784   0.7667   1.3367   0.2124   0.0746   5.9603   0.8901   0.0073   0.0050  -0.3446   0.2481   0.5991   0.1872  -0.0040   0.0035  -0.0424   0.0099   0.0067
  5.060698  -0.1169  -0.0454   0.0818  -1.7785   0.7672   1.3372   0.2121   0.0747   5.9597   0.8900   0.0073   0.0050  -0.3449   0.2479   0.5991   0.1871  -0.0041   0.0034  -0.0426   0.0099   0.0067
  5.113944  -0.1168  -0.0453   0.0818  -1.7786   0.7678   1.3378   0.2118   0.0747   5.9589   0.8900   0.0073   0.0050  -0.3454   0.2476   0.5990   0.1871  -0.0041   0.0034  -0.0428   0.0099   0.0067
  5.161368  -0.1168  -0.0453   0.0818  -1.7786   0.7679   1.3379   0.2118   0.0747   5.9588   0.8899   0.0073   0.0050  -0.3454   0.2475   0.5990   0.1871  -0.0042   0.0034  -0.0428   0.0099   0.0067
  5.204120  -0.1168  -0.0453   0.0818  -1.7787   0.7679   1.3379   0.2117   0.0747   5.9588   0.8899   0.0073   0.0050  -0.3455   0.2475   0.5990   0.1870  -0.0042   0.0033  -0.0429   0.0099   0.0067
  5.243038  -0.1168  -0.0453   0.0817  -1.7787   0.7680   1.3380   0.2117   0.0747   5.9587   0.8899   0.0073   0.0050  -0.3455   0.2475   0.5989   0.1870  -0.0042   0.0033  -0.0429   0.0099   0.0067
  5.255272  -0.1168  -0.0453   0.0817  -1.7788   0.7683   1.3383   0.2115   0.0748   5.9583   0.8899   0.0073   0.0050  -0.3457   0.2473   0.5989   0.1870  -0.0042   0.0033  -0.0430   0.0099   0.0067
  5.278754  -0.1168  -0.0453   0.0817  -1.7788   0.7685   1.3385   0.2114   0.0748   5.9580   0.8899   0.0073   0.0049  -0.3459   0.2472   0.5989   0.1870  -0.0042   0.0033  -0.0431   0.0099   0.0067
  5.301030  -0.1168  -0.0453   0.0817  -1.7788   0.7686   1.3386   0.2114   0.0748   5.9579   0.8899   0.0073   0.0049  -0.3459   0.2472   0.5988   0.1870  -0.0042   0.0033  -0.0431   0.0099   0.0067
  5.397940  -0.1168  -0.0453   0.0817  -1.7789   0.7691   1.3391   0.2111   0.0749   5.9572   0.8898   0.0073   0.0049  -0.3463   0.2469   0.5988   0.1869  -0.0043   0.0032  -0.0433   0.0099   0.0067
  5.477121  -0.1167  -0.0452   0.0816  -1.7791   0.7699   1.3399   0.2107   0.0749   5.9561   0.8898   0.0073   0.0049  -0.3469   0.2466   0.5986   0.1868  -0.0044   0.0031  -0.0436   0.0099   0.0067
  5.544068  -0.1167  -0.0452   0.0816  -1.7793   0.7705   1.3405   0.2103   0.0750   5.9553   0.8897   0.0073   0.0049  -0.3474   0.2463   0.5985   0.1867  -0.0045   0.0030  -0.0438   0.0099   0.0067
  5.602060  -0.1166  -0.0452   0.0815  -1.7794   0.7711   1.3411   0.2100   0.0750   5.9545   0.8896   0.0073   0.0049  -0.3478   0.2460   0.5985   0.1866  -0.0046   0.0030  -0.0441   0.0099   0.0067
  5.653213  -0.1166  -0.0452   0.0815  -1.7795   0.7712   1.3412   0.2100   0.0750   5.9544   0.8896   0.0073   0.0049  -0.3479   0.2459   0.5984   0.1866  -0.0046   0.0030  -0.0441   0.0099   0.0067
  5.698970  -0.1166  -0.0452   0.0815  -1.7795   0.7714   1.3413   0.2099   0.0751   5.9542   0.8896   0.0073   0.0049  -0.3480   0.2458   0.5984   0.1866  -0.0046   0.0029  -0.0442   0.0099   0.0067
  5.740363  -0.1166  -0.0452   0.0815  -1.7795   0.7715   1.3414   0.2098   0.0751   5.9540   0.8896   0.0073   0.0049  -0.3481   0.2458   0.5984   0.1866  -0.0047   0.0029  -0.0442   0.0099   0.0067
  5.778151  -0.1166  -0.0451   0.0815  -1.7796   0.7718   1.3418   0.2096   0.0751   5.9536   0.8896   0.0073   0.0049  -0.3483   0.2456   0.5983   0.1865  -0.0047   0.0029  -0.0443   0.0099   0.0067
  5.812913  -0.1166  -0.0451   0.0814  -1.7797   0.7723   1.3422   0.2094   0.0751   5.9531   0.8895   0.0073   0.0049  -0.3486   0.2454   0.5983   0.1865  -0.0048   0.0028  -0.0445   0.0099   0.0067
  5.845098  -0.1165  -0.0451   0.0814  -1.7799   0.7731   1.3430   0.2090   0.0752   5.9519   0.8894   0.0073   0.0049  -0.3493   0.2450   0.5981   0.1864  -0.0049   0.0027  -0.0448   0.0099   0.0067
  5.875061  -0.1165  -0.0450   0.0813  -1.7800   0.7736   1.3435   0.2087   0.0753   5.9513   0.8894   0.0073   0.0049  -0.3496   0.2448   0.5981   0.1863  -0.0049   0.0027  -0.0450   0.0099   0.0067
  5.903090  -0.1165  -0.0450   0.0813  -1.7801   0.7741   1.3440   0.2084   0.0753   5.9506   0.8894   0.0073   0.0048  -0.3500   0.2445   0.5980   0.1862  -0.0050   0.0026  -0.0452   0.0099   0.0067
  5.929419  -0.1164  -0.0450   0.0812  -1.7803   0.7747   1.3446   0.2081   0.0754   5.9498   0.8893   0.0073   0.0048  -0.3504   0.2442   0.5979   0.1862  -0.0051   0.0026  -0.0454   0.0099   0.0067
  5.954243  -0.1164  -0.0450   0.0812  -1.7804   0.7753   1.3451   0.2078   0.0754   5.9491   0.8893   0.0073   0.0048  -0.3508   0.2440   0.5978   0.1861  -0.0052   0.0025  -0.0456   0.0099   0.0067
  5.977724  -0.1164  -0.0449   0.0812  -1.7805   0.7756   1.3454   0.2076   0.0755   5.9486   0.8892   0.0073   0.0048  -0.3511   0.2438   0.5978   0.1860  -0.0052   0.0025  -0.0457   0.0099   0.0067
  6.000000  -0.1163  -0.0449   0.0812  -1.7805   0.7758   1.3456   0.2076   0.0755   5.9485   0.8892   0.0073   0.0048  -0.3512   0.2437   0.5977   0.1860  -0.0052   0.0024  -0.0458   0.0099   0.0067
  6.041393  -0.1163  -0.0449   0.0811  -1.7808   0.7767   1.3465   0.2070   0.0756   5.9472   0.8891   0.0074   0.0048  -0.3519   0.2433   0.5976   0.1859  -0.0054   0.0023  -0.0462   0.0099   0.0067
  6.079181  -0.1162  -0.0448   0.0810  -1.7812   0.7784   1.3482   0.2061   0.0758   5.9450   0.8890   0.0074   0.0048  -0.3531   0.2424   0.5973   0.1857  -0.0056   0.0021  -0.0468   0.0099   0.0067
  6.113944  -0.1161  -0.0447   0.0809  -1.7815   0.7797   1.3494   0.2054   0.0759   5.9433   0.8888   0.0074   0.0047  -0.3541   0.2418   0.5971   0.1855  -0.0058   0.0020  -0.0473   0.0099   0.0067
  6.146128  -0.1160  -0.0447   0.0808  -1.7818   0.7810   1.3507   0.2047   0.0760   5.9416   0.8887   0.0074   0.0047  -0.3550   0.2412   0.5969   0.1853  -0.0060   0.0018  -0.0478   0.0099   0.0067
  6.176091  -0.1160  -0.0446   0.0807  -1.7820   0.7821   1.3518   0.2042   0.0761   5.9401   0.8886   0.0074   0.0047  -0.3558   0.2407   0.5968   0.1852  -0.0061   0.0017  -0.0482   0.0099   0.0067
  6.204120  -0.1159  -0.0445   0.0806  -1.7823   0.7833   1.3530   0.2035   0.0762   5.9385   0.8885   0.0074   0.0047  -0.3567   0.2401   0.5966   0.1850  -0.0063   0.0015  -0.0486   0.0099   0.0067
  6.230449  -0.1158  -0.0445   0.0804  -1.7827   0.7851   1.3547   0.2026   0.0764   5.9362   0.8884   0.0074   0.0046  -0.3580   0.2392   0.5963   0.1848  -0.0065   0.0013  -0.0493   0.0099   0.0067
  6.255272  -0.1157  -0.0444   0.0804  -1.7830   0.7862   1.3557   0.2020   0.0765   5.9348   0.8883   0.0074   0.0046  -0.3588   0.2387   0.5961   0.1846  -0.0067   0.0012  -0.0497   0.0099   0.0067
  6.278754  -0.1156  -0.0443   0.0802  -1.7834   0.7878   1.3573   0.2011   0.0767   5.9326   0.8881   0.0074   0.0046  -0.3600   0.2379   0.5959   0.1844  -0.0069   0.0010  -0.0503   0.0099   0.0067
  6.301030  -0.1155  -0.0442   0.0801  -1.7838   0.7897   1.3592   0.2001   0.0769   5.9301   0.8879   0.0074   0.0046  -0.3614   0.2370   0.5956   0.1842  -0.0072   0.0008  -0.0511   0.0099   0.0067
  6.322219  -0.1154  -0.0441   0.0800  -1.7843   0.7915   1.3609   0.1992   0.0770   5.9278   0.8877   0.0074   0.0045  -0.3627   0.2361   0.5953   0.1839  -0.0074   0.0006  -0.0517   0.0099   0.0067
  6.342422  -0.1152  -0.0440   0.0798  -1.7847   0.7935   1.3628   0.1981   0.0772   5.9252   0.8876   0.0074   0.0045  -0.3641   0.2352   0.5950   0.1837  -0.0077   0.0004  -0.0525   0.0099   0.0067
  6.361728  -0.1151  -0.0439   0.0797  -1.7851   0.7953   1.3646   0.1971   0.0774   5.9228   0.8874   0.0074   0.0045  -0.3654   0.2343   0.5947   0.1834  -0.0080   0.0001  -0.0532   0.0100   0.0067
  6.380211  -0.1150  -0.0438   0.0795  -1.7856   0.7971   1.3664   0.1962   0.0776   5.9204   0.8873   0.0074   0.0044  -0.3668   0.2334   0.5944   0.1832  -0.0082  -0.0001  -0.0539   0.0100   0.0067
  6.397940  -0.1150  -0.0438   0.0794  -1.7859   0.7982   1.3675   0.1956   0.0777   5.9190   0.8871   0.0074   0.0044  -0.3676   0.2328   0.5943   0.1830  -0.0084  -0.0002  -0.0543   0.0100   0.0067
  6.414973  -0.1122  -0.0453   0.0779  -1.7514   0.7983   1.3750   0.1450  -0.4321   5.6434   0.8275   0.0084   0.0051  -0.3599   0.2335   0.5899   0.2058   0.0091   0.0022  -0.2671   0.0095   0.0065
  6.431364  -0.1125  -0.0456   0.0787  -1.7557   0.8049   1.3627   0.1404  -0.8654   5.6081   0.8443   0.0083   0.0050  -0.3582   0.2323   0.5900   0.2030   0.0074   0.0046  -0.2020   0.0097   0.0065
  6.447158  -0.1035  -0.0516   0.0759  -1.6502   0.8080   1.3473  -0.0462  -3.5601   4.6140   0.6919   0.0113   0.0073  -0.3262   0.2328   0.5748   0.2802   0.0559   0.0206  -0.7672   0.0084   0.0056
  6.462398  -0.0965  -0.0522   0.0767  -1.5617   0.8509   1.2702  -0.2296  -6.4601   3.8208   0.5948   0.0139   0.0091  -0.3006   0.2368   0.5745   0.2728   0.0864   0.0230  -0.8633   0.0084   0.0054
  6.477121  -0.0977  -0.0499   0.0715  -1.5617   0.9240   1.3001  -0.2530  -7.8353   4.0424   0.5839   0.0132   0.0088  -0.3049   0.2276   0.5749   0.2088   0.0752   0.0982  -0.7680   0.0410   0.0057
  6.491362  -0.0975  -0.0490   0.0666  -1.5529   0.9549   1.3394  -0.2228  -8.4785   3.9999   0.5489   0.0129   0.0088  -0.3033   0.2267   0.5714   0.1974   0.0897   0.1665  -0.8085   0.0854   0.0057
  6.505150  -0.0982  -0.0485   0.0624  -1.5575   0.9839   1.3439  -0.2144  -9.2221   4.0901   0.5498   0.0125   0.0086  -0.3041   0.2240   0.5744   0.1900   0.0824   0.1512  -0.7405   0.1147   0.0058
  6.518514  -0.0998  -0.0467   0.0642  -1.5760   0.9740   1.3584  -0.1740  -8.6599   4.3198   0.5917   0.0118   0.0082  -0.3120   0.2253   0.5771   0.1600   0.0718   0.1478  -0.6541   0.1212   0.0060
  6.531479  -0.1024  -0.0481   0.0618  -1.6027   0.9715   1.3514  -0.1310  -7.9910   4.5149   0.6252   0.0112   0.0077  -0.3159   0.2256   0.5806   0.1944   0.0566   0.1822  -0.5224   0.1225   0.0061
  6.544068  -0.1034  -0.0473   0.0616  -1.6117   0.9677   1.3681  -0.0753  -7.4841   4.6093   0.6344   0.0106   0.0074  -0.3192   0.2242   0.5791   0.1850   0.0552   0.1779  -0.5290   0.1205   0.0062
  6.556303  -0.1018  -0.0442   0.0748  -1.6027   0.8902   1.3647  -0.0766  -6.5820   4.6006   0.7503   0.0109   0.0073  -0.3197   0.2304   0.5747   0.1209   0.0525   0.0846  -0.6044   0.0803   0.0062
  6.568202  -0.1043  -0.0474   0.0641  -1.6262   0.9253   1.3524  -0.0184  -6.3550   4.6436   0.7177   0.0102   0.0070  -0.3176   0.2297   0.5785   0.2094   0.0478   0.1666  -0.4790   0.1084   0.0063
  6.579783  -0.1052  -0.0443   0.0775  -1.6458   0.8752   1.3546  -0.0527  -5.8436   4.9182   0.8241   0.0101   0.0066  -0.3283   0.2327   0.5807   0.1236   0.0307   0.0141  -0.3358   0.0926   0.0065
  6.591064  -0.1065  -0.0469   0.0701  -1.6511   0.8908   1.3305   0.0029  -5.4453   4.8923   0.8019   0.0098   0.0066  -0.3215   0.2385   0.5865   0.2079   0.0314   0.0326  -0.2823   0.1168   0.0064
  6.602060  -0.1076  -0.0429   0.0895  -1.6365   0.8557   1.3382   0.0107  -4.9339   5.2033   0.9526   0.0097   0.0071  -0.3207   0.2707   0.6047   0.1197   0.0288  -0.0383  -0.1435   0.0780   0.0067
  6.612784  -0.1089  -0.0437   0.0917  -1.5814   0.9080   1.3302   0.1044  -5.1408   5.2777   1.0324   0.0088   0.0082  -0.2919   0.3298   0.6404   0.1824   0.0486   0.1618   0.0077   0.0996   0.0069
  6.623249  -0.1061  -0.0456   0.1037  -1.5010   0.8727   1.2797   0.0847  -4.9777   4.9157   1.1308   0.0107   0.0102  -0.2595   0.3690   0.6602   0.2173   0.0764  -0.1674  -0.1146   0.0816   0.0070
  6.633469  -0.1077  -0.0434   0.1036  -1.4996   0.8920   1.3137   0.1566  -4.4775   5.1849   1.1911   0.0104   0.0111  -0.2500   0.4041   0.6917   0.2153   0.0918  -0.0588   0.0199   0.0968   0.0074
  6.643453  -0.1065  -0.0430   0.1057  -1.4251   0.8979   1.2887   0.1820  -4.6805   5.0930   1.2574   0.0110   0.0132  -0.2082   0.4582   0.7293   0.2385   0.1216   0.0414   0.0857   0.0956   0.0077
  6.653213  -0.1053  -0.0430   0.1122  -1.3639   0.8682   1.2473   0.1923  -4.4781   4.9873   1.3094   0.0118   0.0150  -0.1704   0.4979   0.7560   0.2553   0.1410   0.0097   0.1075   0.0745   0.0081
  6.662758  -0.1048  -0.0423   0.1219  -1.2997   0.8377   1.2033   0.2429  -4.0296   4.9569   1.3741   0.0127   0.0174  -0.1271   0.5507   0.7947   0.2796   0.1652   0.0077   0.1496   0.0541   0.0086
  6.672098  -0.1048  -0.0416   0.1316  -1.2450   0.8121   1.1638   0.3043  -3.6239   4.9758   1.4358   0.0136   0.0201  -0.0820   0.6066   0.8393   0.3068   0.1909   0.0064   0.2143   0.0445   0.0093
  6.681241  -0.1046  -0.0403   0.1363  -1.2565   0.8571   1.1901   0.3231  -3.4337   5.0018   1.4776   0.0156   0.0231  -0.0575   0.6439   0.8908   0.3418   0.2222   0.0288   0.2988   0.0459   0.0103
  6.690196  -0.1049  -0.0388   0.1424  -1.2809   0.9074   1.2223   0.3506  -3.0375   5.0686   1.5260   0.0181   0.0269  -0.0279   0.6883   0.9552   0.3848   0.2602   0.0789   0.4146   0.0396   0.0123
  6.698970  -0.1038  -0.0360   0.1690  -1.1892   1.0464   1.2736   0.5048  -2.2132   5.0868   1.8052   0.0245   0.0389   0.0975   0.8816   1.1535   0.5303   0.3889   0.1966   0.7023   0.0331   0.0186
  6.720160  -0.1001  -0.0325   0.2230  -1.0778   1.3590   1.3914   0.6756  -1.7655   4.8330   2.3064   0.0393   0.0669   0.3737   1.2279   1.5466   0.8486   0.6329   0.4378   1.3636   0.0287   0.0431
  6.740363  -0.1020  -0.0350   0.2489  -1.1976   1.4567   1.4258   0.6785  -1.9227   4.7440   2.4347   0.0487   0.0886   0.5608   1.3491   1.7627   1.0668   0.7410   0.5580   2.0148   0.0464   0.0812
  6.759668  -0.1032  -0.0368   0.2395  -1.2665   1.3719   1.4102   0.5947  -1.8381   4.8069   2.2655   0.0445   0.0801   0.4827   1.2347   1.6394   0.9890   0.6712   0.5237   1.8292   0.0412   0.0741
  6.778151  -0.1068  -0.0388   0.2013  -1.3754   1.1459   1.3729   0.4655  -1.2581   5.1712   1.9099   0.0302   0.0555   0.2876   0.9305   1.2746   0.7405   0.4571   0.3431   1.2037   0.0360   0.0613
  6.795880  -0.1092  -0.0400   0.1826  -1.4515   1.0089   1.3610   0.3700  -0.8189   5.4656   1.7043   0.0201   0.0407   0.2149   0.7148   0.9974   0.5808   0.2928   0.1730   0.7067   0.0407   0.0616
  6.812913  -0.1108  -0.0403   0.1847  -1.4989   0.9760   1.3820   0.3280  -0.2688   5.7097   1.6892   0.0156   0.0387   0.2962   0.6228   0.8577   0.5572   0.2142   0.0514   0.4552   0.0579   0.0826
  6.829304  -0.1114  -0.0395   0.2110  -1.5000   1.0622   1.4352   0.3670   0.4266   5.8788   1.9130   0.0183   0.0521   0.5464   0.6991   0.9096   0.6992   0.2617   0.0191   0.5773   0.0865   0.1245
  6.845098  -0.1119  -0.0390   0.2292  -1.4748   1.0886   1.4500   0.4141   0.9279   5.9728   2.0387   0.0190   0.0573   0.6572   0.7519   0.9408   0.7607   0.2890   0.0168   0.6503   0.0947   0.1377
  6.860338  -0.1125  -0.0392   0.2317  -1.4754   1.0871   1.4503   0.4323   1.1565   6.0228   2.0517   0.0190   0.0579   0.6703   0.7599   0.9461   0.7705   0.2928   0.0170   0.6635   0.0953   0.1390
  6.875061  -0.1125  -0.0391   0.2363  -1.4637   1.1007   1.4519   0.4450   1.1921   6.0234   2.0916   0.0198   0.0602   0.7055   0.7816   0.9648   0.7932   0.3064   0.0212   0.6998   0.0984   0.1436
  6.903090  -0.1123  -0.0388   0.2474  -1.4300   1.1523   1.4588   0.4888   1.3008   6.0177   2.2125   0.0228   0.0682   0.8107   0.8517   1.0323   0.8681   0.3536   0.0382   0.8245   0.1087   0.1591
  6.929419  -0.1126  -0.0391   0.2451  -1.4187   1.1869   1.4568   0.5223   1.3371   6.0076   2.2539   0.0255   0.0734   0.8485   0.8912   1.0840   0.9112   0.3862   0.0559   0.9082   0.1148   0.1678
  6.954243  -0.1129  -0.0394   0.2462  -1.4132   1.1967   1.4529   0.5389   1.3437   6.0011   2.2703   0.0267   0.0755   0.8621   0.9124   1.1109   0.9290   0.4018   0.0699   0.9606   0.1155   0.1693
  6.977724  -0.1133  -0.0397   0.2479  -1.4086   1.2088   1.4494   0.5580   1.3409   5.9862   2.2842   0.0282   0.0777   0.8702   0.9383   1.1465   0.9488   0.4211   0.0914   1.0342   0.1150   0.1693
  7.000000  -0.1141  -0.0406   0.2407  -1.4240   1.1902   1.4365   0.5590   1.2790   5.9781   2.2366   0.0282   0.0758   0.8204   0.9324   1.1550   0.9325   0.4222   0.1106   1.0496   0.1088   0.1607
  7.021189  -0.1148  -0.0413   0.2358  -1.4360   1.1755   1.4225   0.5691   1.2058   5.9460   2.2028   0.0288   0.0742   0.7653   0.9461   1.1890   0.9253   0.4386   0.1537   1.1218   0.0988   0.1478
  7.041393  -0.1158  -0.0425   0.2199  -1.4689   1.1354   1.3961   0.5687   1.0407   5.8924   2.0885   0.0288   0.0689   0.6302   0.9364   1.2167   0.8840   0.4457   0.2128   1.1804   0.0807   0.1233
  7.060698  -0.1162  -0.0429   0.2148  -1.4766   1.1199   1.3830   0.5712   0.9832   5.8745   2.0480   0.0289   0.0673   0.5866   0.9348   1.2271   0.8706   0.4482   0.2329   1.2019   0.0747   0.1154
  7.079181  -0.1163  -0.0430   0.2171  -1.4675   1.1315   1.3770   0.5949   0.9762   5.8407   2.0755   0.0304   0.0693   0.5907   0.9728   1.2762   0.8948   0.4774   0.2690   1.2974   0.0716   0.1123
  7.096910  -0.1167  -0.0434   0.2178  -1.4650   1.1402   1.3698   0.6202   0.9518   5.8036   2.0952   0.0321   0.0708   0.5806   1.0130   1.3327   0.9170   0.5094   0.3137   1.4046   0.0665   0.1066
  7.113944  -0.1174  -0.0441   0.2135  -1.4748   1.1381   1.3581   0.6413   0.8849   5.7589   2.0805   0.0335   0.0707   0.5333   1.0441   1.3889   0.9249   0.5383   0.3668   1.5079   0.0576   0.0957
  7.130334  -0.1182  -0.0449   0.2069  -1.4913   1.1192   1.3447   0.6459   0.8109   5.7371   2.0366   0.0338   0.0687   0.4755   1.0472   1.4101   0.9112   0.5464   0.3981   1.5458   0.0496   0.0852
  7.146128  -0.1185  -0.0452   0.2063  -1.4915   1.1196   1.3393   0.6568   0.7943   5.7221   2.0387   0.0345   0.0692   0.4668   1.0623   1.4329   0.9182   0.5586   0.4167   1.5863   0.0473   0.0825
  7.161368  -0.1184  -0.0451   0.2112  -1.4770   1.1410   1.3388   0.6830   0.8157   5.6927   2.0890   0.0361   0.0723   0.4937   1.1050   1.4816   0.9520   0.5883   0.4443   1.6738   0.0472   0.0835
  7.176091  -0.1184  -0.0451   0.2162  -1.4628   1.1622   1.3374   0.7105   0.8367   5.6645   2.1400   0.0379   0.0754   0.5211   1.1488   1.5320   0.9862   0.6187   0.4729   1.7631   0.0470   0.0844
  7.204120  -0.1184  -0.0450   0.2263  -1.4328   1.2081   1.3338   0.7697   0.8765   5.6026   2.2449   0.0416   0.0820   0.5753   1.2412   1.6382   1.0571   0.6815   0.5332   1.9478   0.0463   0.0857
  7.230449  -0.1192  -0.0456   0.2291  -1.4286   1.2174   1.3262   0.7952   0.8738   5.5888   2.2751   0.0430   0.0841   0.5855   1.2783   1.6830   1.0811   0.7061   0.5619   2.0227   0.0444   0.0840
  7.255272  -0.1200  -0.0463   0.2290  -1.4318   1.2041   1.3159   0.7958   0.8628   5.6119   2.2604   0.0427   0.0837   0.5840   1.2739   1.6757   1.0751   0.7003   0.5575   2.0101   0.0442   0.0837
  7.278754  -0.1204  -0.0467   0.2320  -1.4243   1.2026   1.3086   0.8067   0.8680   5.6127   2.2717   0.0432   0.0847   0.5978   1.2868   1.6872   1.0842   0.7062   0.5624   2.0314   0.0445   0.0844
  7.301030  -0.1208  -0.0469   0.2313  -1.4230   1.1845   1.2980   0.8010   0.8466   5.6227   2.2393   0.0427   0.0836   0.5862   1.2712   1.6683   1.0684   0.6928   0.5525   2.0006   0.0440   0.0832
  7.322219  -0.1211  -0.0472   0.2353  -1.4142   1.1805   1.2902   0.8075   0.8366   5.6220   2.2297   0.0431   0.0842   0.5908   1.2755   1.6707   1.0687   0.6906   0.5521   2.0065   0.0437   0.0828
  7.342422  -0.1217  -0.0477   0.2411  -1.4066   1.1828   1.2850   0.8216   0.8379   5.6225   2.2404   0.0440   0.0858   0.6066   1.2927   1.6876   1.0804   0.6972   0.5587   2.0386   0.0439   0.0834
  7.361728  -0.1223  -0.0481   0.2448  -1.3969   1.1733   1.2782   0.8272   0.8299   5.6368   2.2325   0.0439   0.0857   0.6091   1.2903   1.6779   1.0732   0.6884   0.5496   2.0181   0.0442   0.0834
  7.380211  -0.1217  -0.0477   0.2511  -1.2895   1.1500   1.2638   0.8774   0.8262   5.6385   2.3038   0.0409   0.0813   0.5858   1.2884   1.6246   1.0207   0.6615   0.5142   1.8473   0.0416   0.0777
  7.397940  -0.1195  -0.0460   0.2628  -1.1388   1.1754   1.2577   0.9574   0.8619   5.5669   2.4365   0.0397   0.0796   0.5909   1.3388   1.6268   1.0013   0.6683   0.5103   1.7262   0.0367   0.0691
  7.414973  -0.1182  -0.0448   0.2731  -1.0363   1.1976   1.2525   1.0161   0.8824   5.5120   2.5261   0.0396   0.0793   0.5984   1.3817   1.6413   0.9967   0.6790   0.5157   1.6762   0.0331   0.0633
  7.431364  -0.1177  -0.0444   0.2803  -0.9855   1.2109   1.2469   1.0494   0.8793   5.4814   2.5635   0.0401   0.0798   0.5999   1.4093   1.6585   0.9985   0.6877   0.5255   1.6765   0.0304   0.0595
  7.447158  -0.1183  -0.0448   0.2826  -0.9915   1.2044   1.2396   1.0486   0.8470   5.4825   2.5329   0.0408   0.0800   0.5882   1.4081   1.6619   0.9954   0.6853   0.5303   1.6972   0.0289   0.0574
  7.462398  -0.1196  -0.0458   0.2826  -1.0342   1.1793   1.2306   1.0236   0.8075   5.5155   2.4622   0.0412   0.0802   0.5774   1.3836   1.6472   0.9885   0.6720   0.5243   1.7204   0.0294   0.0582
  7.477121  -0.1200  -0.0461   0.2835  -1.0426   1.1846   1.2252   1.0192   0.8088   5.5084   2.4412   0.0421   0.0814   0.5899   1.3912   1.6623   0.9994   0.6788   0.5336   1.7453   0.0289   0.0576
  7.491362  -0.1199  -0.0459   0.2870  -1.0407   1.2032   1.2223   1.0230   0.8203   5.4828   2.4391   0.0436   0.0837   0.6129   1.4122   1.6916   1.0218   0.6937   0.5497   1.7942   0.0287   0.0577
  7.505150  -0.1199  -0.0458   0.2896  -1.0421   1.2163   1.2177   1.0237   0.8266   5.4636   2.4296   0.0448   0.0855   0.6317   1.4279   1.7149   1.0396   0.7048   0.5627   1.8343   0.0284   0.0576
  7.518514  -0.1202  -0.0460   0.2909  -1.0502   1.2231   1.2120   1.0201   0.8268   5.4550   2.4105   0.0457   0.0868   0.6457   1.4368   1.7314   1.0523   0.7117   0.5723   1.8649   0.0280   0.0573
  7.531479  -0.1206  -0.0463   0.2912  -1.0595   1.2239   1.2048   1.0138   0.8217   5.4507   2.3844   0.0464   0.0877   0.6553   1.4399   1.7413   1.0601   0.7148   0.5785   1.8863   0.0276   0.0568
  7.544068  -0.1211  -0.0466   0.2896  -1.0735   1.2159   1.1968   1.0007   0.8081   5.4545   2.3441   0.0466   0.0878   0.6566   1.4318   1.7392   1.0589   0.7109   0.5786   1.8896   0.0271   0.0559
  7.556303  -0.1218  -0.0473   0.2853  -1.0967   1.1964   1.1873   0.9792   0.7897   5.4729   2.2900   0.0462   0.0868   0.6500   1.4102   1.7224   1.0479   0.6991   0.5711   1.8708   0.0269   0.0553
  7.568202  -0.1225  -0.0479   0.2838  -1.1036   1.1814   1.1777   0.9752   0.7873   5.4862   2.2731   0.0459   0.0863   0.6500   1.4057   1.7169   1.0440   0.6949   0.5682   1.8553   0.0267   0.0547
  7.579783  -0.1222  -0.0477   0.2849  -1.0771   1.1834   1.1712   0.9895   0.8054   5.4709   2.2966   0.0457   0.0861   0.6570   1.4196   1.7226   1.0449   0.6997   0.5707   1.8298   0.0257   0.0530
  7.591064  -0.1219  -0.0474   0.2888  -1.0500   1.1927   1.1658   1.0078   0.8251   5.4479   2.3266   0.0462   0.0870   0.6726   1.4421   1.7401   1.0557   0.7107   0.5793   1.8341   0.0250   0.0522
  7.602060  -0.1217  -0.0472   0.2921  -1.0287   1.1970   1.1593   1.0201   0.8384   5.4289   2.3434   0.0466   0.0878   0.6872   1.4576   1.7524   1.0641   0.7193   0.5860   1.8406   0.0246   0.0516
  7.628389  -0.1220  -0.0473   0.2984  -1.0129   1.1893   1.1389   1.0295   0.8374   5.4144   2.3368   0.0475   0.0893   0.7081   1.4728   1.7662   1.0761   0.7275   0.5954   1.8639   0.0240   0.0511
  7.653213  -0.1238  -0.0487   0.3018  -1.0569   1.1456   1.1064   1.0066   0.7858   5.4553   2.2523   0.0479   0.0898   0.7091   1.4518   1.7531   1.0733   0.7162   0.5938   1.8971   0.0243   0.0516
  7.676693  -0.1264  -0.0508   0.3010  -1.1533   1.0631   1.0649   0.9466   0.6776   5.5346   2.0811   0.0477   0.0887   0.6821   1.3855   1.7048   1.0494   0.6801   0.5771   1.9301   0.0254   0.0529
  7.698970  -0.1278  -0.0520   0.2957  -1.1838   0.9957   1.0206   0.9163   0.6157   5.5760   1.9729   0.0465   0.0866   0.6625   1.3396   1.6591   1.0215   0.6517   0.5595   1.9070   0.0256   0.0528
  7.728354  -0.1273  -0.0515   0.2985  -1.1304   0.9666   0.9695   0.9273   0.6034   5.5441   1.9401   0.0460   0.0860   0.6769   1.3403   1.6442   1.0109   0.6469   0.5570   1.8697   0.0240   0.0501
  7.755875  -0.1277  -0.0519   0.3006  -1.0928   0.9180   0.9200   0.9347   0.5917   5.5235   1.9052   0.0453   0.0852   0.6900   1.3384   1.6286   1.0001   0.6398   0.5523   1.8358   0.0227   0.0478
  7.778151  -0.1283  -0.0524   0.2987  -1.0719   0.8768   0.8792   0.9342   0.5721   5.5395   1.8648   0.0442   0.0834   0.6878   1.3237   1.6008   0.9797   0.6252   0.5408   1.7832   0.0216   0.0456
  7.845098  -0.1301  -0.0538   0.2989  -0.9871   0.7629   0.7506   0.9432   0.5325   5.5430   1.7537   0.0423   0.0811   0.7179   1.3014   1.5442   0.9425   0.6035   0.5237   1.6872   0.0196   0.0416
  7.903090  -0.1393  -0.0616   0.2996  -0.9987   0.6206   0.6345   0.9675   0.5188   5.7221   1.6935   0.0409   0.0800   0.7563   1.3054   1.5152   0.9250   0.5989   0.5198   1.6247   0.0180   0.0389
  7.954243  -0.1557  -0.0755   0.2829  -1.1100   0.3967   0.5168   0.9699   0.5060   6.1040   1.6124   0.0373   0.0748   0.7568   1.2745   1.4417   0.8732   0.5736   0.4918   1.4873   0.0168   0.0363
  8.000000  -0.1717  -0.0888   0.2881  -1.2449   0.2576   0.4470   0.9847   0.4523   6.4787   1.5702   0.0360   0.0745   0.8014   1.2798   1.4358   0.8656   0.5612   0.4857   1.4718   0.0156   0.0339
  8.041392  -0.1862  -0.1007   0.2842  -1.3589   0.1377   0.3875   1.0018   0.4403   6.8309   1.5551   0.0344   0.0731   0.8283   1.2863   1.4201   0.8518   0.5522   0.4754   1.4208   0.0148   0.0322
  8.079182  -0.1903  -0.1040   0.2850  -1.3683   0.1074   0.3662   1.0182   0.4321   6.9264   1.5656   0.0336   0.0726   0.8474   1.2957   1.4208   0.8474   0.5454   0.4680   1.3940   0.0142   0.0308
  8.146128  -0.1907  -0.1036   0.2970  -1.3184   0.1391   0.3482   1.0588   0.4023   6.9726   1.6155   0.0334   0.0739   0.8879   1.3289   1.4481   0.8588   0.5418   0.4678   1.4009   0.0137   0.0296
  8.204120  -0.1905  -0.1027   0.2988  -1.2526   0.1501   0.3249   1.1022   0.3916   6.9932   1.6793   0.0323   0.0733   0.9003   1.3591   1.4615   0.8626   0.5397   0.4660   1.3720   0.0131   0.0284
  8.255273  -0.1889  -0.1005   0.2995  -1.1826   0.1813   0.2982   1.1465   0.3724   7.0045   1.7371   0.0315   0.0728   0.9089   1.3941   1.4764   0.8699   0.5344   0.4640   1.3465   0.0129   0.0276
  8.301030  -0.1887  -0.0996   0.3046  -1.1079   0.2001   0.2782   1.2069   0.3684   7.0371   1.8303   0.0305   0.0726   0.9270   1.4374   1.4988   0.8760   0.5346   0.4636   1.3271   0.0124   0.0265
  8.352182  -0.1932  -0.1028   0.3089  -1.0812   0.1927   0.2447   1.2630   0.3719   7.1713   1.9114   0.0292   0.0726   0.9664   1.4711   1.5189   0.8725   0.5322   0.4597   1.3122   0.0118   0.0254
  8.397940  -0.1993  -0.1076   0.3210  -1.0493   0.1758   0.2278   1.3340   0.4077   7.3258   2.0383   0.0280   0.0735   1.0186   1.5114   1.5458   0.8695   0.5398   0.4579   1.3074   0.0114   0.0248
  8.439333  -0.2082  -0.1153   0.3284  -1.0746   0.1101   0.2048   1.3815   0.4354   7.5080   2.1205   0.0264   0.0734   1.0614   1.5312   1.5590   0.8572   0.5406   0.4518   1.2923   0.0108   0.0239
  8.477121  -0.2147  -0.1214   0.3404  -1.0765   0.0699   0.2035   1.4387   0.4707   7.6242   2.2297   0.0252   0.0737   1.0934   1.5551   1.5750   0.8492   0.5470   0.4488   1.2838   0.0102   0.0231
  8.544068  -0.2289  -0.1370   0.3738  -1.1194  -0.0957   0.2306   1.5668   0.5576   7.7260   2.4793   0.0236   0.0757   1.1490   1.6371   1.6411   0.8678   0.5690   0.4526   1.3070   0.0097   0.0226
  8.602060  -0.2366  -0.1469   0.4206  -1.0483  -0.2090   0.2850   1.7441   0.6604   7.7073   2.8232   0.0226   0.0785   1.1908   1.7580   1.7316   0.9089   0.5985   0.4619   1.3427   0.0094   0.0224
  8.653213  -0.2338  -0.1461   0.4704  -0.7993  -0.1674   0.3628   1.9447   0.7760   7.5348   3.2035   0.0228   0.0821   1.2224   1.8919   1.8278   0.9596   0.6400   0.4792   1.3823   0.0089   0.0222
  8.698970  -0.2222  -0.1365   0.5214  -0.4181  -0.0260   0.4551   2.1629   0.8969   7.2645   3.6068   0.0237   0.0859   1.2363   2.0334   1.9246   1.0168   0.6853   0.4997   1.4192   0.0084   0.0221
  8.740363  -0.2077  -0.1237   0.5851   0.0222   0.1546   0.5504   2.4176   1.0417   6.9846   4.0717   0.0251   0.0906   1.2544   2.2117   2.0479   1.0936   0.7384   0.5289   1.4680   0.0082   0.0223
  8.778152  -0.1903  -0.1083   0.6382   0.4754   0.3841   0.6483   2.6146   1.1655   6.6388   4.4173   0.0269   0.0949   1.2815   2.3302   2.1328   1.1483   0.7875   0.5527   1.5075   0.0079   0.0227
  8.812913  -0.1683  -0.0886   0.7027   0.9948   0.7183   0.7639   2.8133   1.2981   6.2491   4.7550   0.0295   0.1003   1.3268   2.4407   2.2132   1.1999   0.8444   0.5805   1.5551   0.0077   0.0231
  8.845098  -0.1582  -0.0799   0.7521   1.2757   0.9223   0.8183   2.9310   1.3942   5.9988   4.9492   0.0320   0.1057   1.3953   2.5322   2.2932   1.2542   0.8891   0.6092   1.6170   0.0077   0.0239
  8.875061  -0.1517  -0.0749   0.7957   1.5049   1.0647   0.8572   3.0224   1.4836   5.7713   5.0988   0.0341   0.1106   1.4656   2.6114   2.3669   1.3038   0.9300   0.6362   1.6734   0.0078   0.0245
  8.903090  -0.1382  -0.0634   0.8300   1.8193   1.3183   0.9074   3.0922   1.5605   5.4420   5.1923   0.0362   0.1149   1.5347   2.6534   2.4137   1.3378   0.9619   0.6550   1.7093   0.0078   0.0249
  8.929419  -0.1267  -0.0534   0.8582   2.0762   1.5464   0.9523   3.1496   1.6209   5.1916   5.2662   0.0383   0.1188   1.5935   2.6890   2.4528   1.3667   0.9869   0.6708   1.7452   0.0077   0.0253
  8.954243  -0.1077  -0.0364   0.9048   2.4748   1.9078   1.0279   3.2498   1.7058   4.8631   5.4013   0.0410   0.1238   1.6638   2.7405   2.5006   1.4001   1.0196   0.6902   1.7834   0.0074   0.0255
  9.000000  -0.0854  -0.0174   0.9963   3.0774   2.4050   1.1311   3.4068   1.8693   4.3391   5.6088   0.0463   0.1347   1.8250   2.8543   2.6159   1.4825   1.0837   0.7349   1.8968   0.0077   0.0272
  9.041392  -0.0700  -0.0049   1.0508   3.5321   2.7666   1.1952   3.4927   1.9645   3.9321   5.6907   0.0497   0.1416   1.9444   2.9110   2.6829   1.5303   1.1163   0.7586   1.9669   0.0073   0.0271
  9.079182  -0.0576   0.0056   1.1228   3.9460   3.1026   1.2665   3.6018   2.0936   3.6238   5.8350   0.0536   0.1503   2.0872   3.0083   2.7792   1.5965   1.1619   0.7933   2.0535   0.0070   0.0273
  9.113943  -0.0473   0.0145   1.1949   4.2933   3.4209   1.3316   3.6946   2.2393   3.3484   5.9572   0.0591   0.1611   2.2454   3.1107   2.8902   1.6801   1.2144   0.8360   2.1857   0.0076   0.0292
  9.146128  -0.0396   0.0207   1.2472   4.5695   3.6565   1.3733   3.7461   2.3252   3.1413   6.0164   0.0619   0.1680   2.3749   3.1678   2.9544   1.7263   1.2405   0.8562   2.2584   0.0077   0.0296
  9.176091  -0.0310   0.0284   1.3236   4.8542   3.9426   1.4317   3.8226   2.4447   2.9234   6.1132   0.0672   0.1784   2.5293   3.2636   3.0594   1.8046   1.2866   0.8967   2.3810   0.0076   0.0303
  9.204120  -0.0207   0.0385   1.4554   5.1670   4.3232   1.5202   3.9558   2.6454   2.6641   6.2881   0.0784   0.1971   2.7118   3.4187   3.2323   1.9485   1.3708   0.9718   2.6426   0.0104   0.0369
  9.230449  -0.0104   0.0487   1.6071   5.4854   4.7213   1.6163   4.0946   2.8475   2.4279   6.4756   0.0898   0.2172   2.9194   3.5793   3.4077   2.0941   1.4513   1.0417   2.9115   0.0140   0.0446
  9.255273  -0.0016   0.0584   1.7839   5.7485   5.1220   1.7301   4.2419   3.1890   2.2836   6.7657   0.1015   0.2425   3.2229   3.7466   3.5743   2.2687   1.5325   1.0883   3.2221   0.0270   0.0652
  9.278753  -0.0018   0.0584   1.8309   5.8491   5.2057   1.7550   4.2777   3.2980   2.2827   6.8651   0.1034   0.2501   3.3364   3.7748   3.5911   2.3077   1.5461   1.0821   3.3280   0.0345   0.0761
  9.301030  -0.0092   0.0487   1.6340   5.7445   4.8270   1.6353   4.1255   2.9429   2.3833   6.5590   0.0880   0.2201   3.0372   3.5828   3.3915   2.0994   1.4456   1.0153   2.9459   0.0202   0.0524
  9.322219  -0.0128   0.0449   1.6205   5.7137   4.7580   1.6144   4.0986   2.8957   2.4275   6.5246   0.0855   0.2180   3.0464   3.5455   3.3505   2.0711   1.4218   0.9901   2.9299   0.0218   0.0537
  9.342422  -0.0069   0.0515   1.7205   5.8484   4.9956   1.6806   4.1866   3.0781   2.3270   6.6760   0.0931   0.2320   3.1959   3.6551   3.4648   2.1763   1.4761   1.0324   3.1035   0.0260   0.0613
  9.361728   0.0007   0.0596   1.8256   6.0191   5.2541   1.7485   4.2739   3.2423   2.1954   6.8078   0.1006   0.2445   3.3253   3.7668   3.5806   2.2716   1.5320   1.0822   3.2444   0.0269   0.0640
  9.380211  -0.0045   0.0533   1.7438   5.9535   5.0783   1.6929   4.1928   3.0965   2.2632   6.6795   0.0927   0.2331   3.2645   3.6741   3.4803   2.1790   1.4757   1.0330   3.0973   0.0240   0.0579
  9.397940  -0.0045   0.0534   1.7775   5.9915   5.1297   1.7045   4.2042   3.1233   2.2444   6.7043   0.0937   0.2370   3.3407   3.6912   3.4975   2.1977   1.4772   1.0307   3.1506   0.0258   0.0605
  9.414973   0.0004   0.0585   1.8546   6.1236   5.3146   1.7511   4.2655   3.2297   2.1499   6.7932   0.0986   0.2460   3.4470   3.7679   3.5768   2.2623   1.5118   1.0610   3.2585   0.0268   0.0627
  9.447158   0.0052   0.0635   1.9425   6.2757   5.5152   1.8023   4.3345   3.3485   2.0536   6.8951   0.1037   0.2561   3.5716   3.8494   3.6585   2.3294   1.5457   1.0885   3.3809   0.0284   0.0659
  9.477121   0.0097   0.0681   2.0129   6.4147   5.6795   1.8461   4.3926   3.4455   1.9725   6.9786   0.1075   0.2635   3.6617   3.9142   3.7214   2.3798   1.5718   1.1097   3.4644   0.0294   0.0677
  9.511884   0.0166   0.0749   2.1067   6.6335   5.9277   1.9074   4.4738   3.5938   1.8545   7.0951   0.1122   0.2734   3.8075   4.0076   3.8092   2.4452   1.6063   1.1378   3.5719   0.0300   0.0692
  9.544068   0.0203   0.0786   2.1657   6.7633   6.0861   1.9413   4.5170   3.6749   1.7869   7.1576   0.1142   0.2794   3.9274   4.0658   3.8628   2.4805   1.6230   1.1519   3.6336   0.0297   0.0688
  9.574031   0.0309   0.0903   2.3470   6.9692   6.4529   2.0405   4.6371   3.8961   1.6438   7.3410   0.1240   0.2976   4.1355   4.2113   4.0078   2.6047   1.6858   1.2048   3.8294   0.0324   0.0742
  9.602060   0.0378   0.0982   2.4725   7.0625   6.6933   2.1057   4.7072   4.0068   1.5460   7.4363   0.1311   0.3101   4.2680   4.3062   4.1075   2.6862   1.7242   1.2411   3.9665   0.0332   0.0765
  9.628389   0.0393   0.0999   2.5098   7.0867   6.7656   2.1223   4.7247   4.0160   1.5186   7.4512   0.1328   0.3135   4.3170   4.3337   4.1359   2.7053   1.7278   1.2457   4.0072   0.0328   0.0759
  9.653213   0.0420   0.1028   2.5763   7.1518   6.8853   2.1520   4.7605   4.0702   1.4704   7.5008   0.1355   0.3198   4.4036   4.3754   4.1771   2.7417   1.7399   1.2546   4.0816   0.0341   0.0781
  9.676694   0.0405   0.1006   2.5282   7.1550   6.8400   2.1309   4.7335   4.0026   1.4805   7.4464   0.1319   0.3151   4.3972   4.3504   4.1482   2.7049   1.7154   1.2344   4.0220   0.0318   0.0736
  9.698970   0.0413   0.1017   2.5537   7.1603   6.8791   2.1409   4.7436   4.0046   1.4681   7.4565   0.1330   0.3174   4.4266   4.3660   4.1648   2.7171   1.7186   1.2382   4.0474   0.0317   0.0735
  9.720160   0.0470   0.1085   2.6827   7.2380   7.0654   2.1977   4.8090   4.1229   1.4034   7.5599   0.1398   0.3285   4.5203   4.4401   4.2417   2.7921   1.7576   1.2714   4.1696   0.0340   0.0782
  9.740363   0.0503   0.1126   2.7636   7.2807   7.1861   2.2334   4.8516   4.1942   1.3624   7.6222   0.1444   0.3360   4.5809   4.4887   4.2941   2.8400   1.7823   1.2931   4.2577   0.0355   0.0812
  9.759667   0.0489   0.1114   2.7812   7.2740   7.1970   2.2369   4.8545   4.1982   1.3711   7.6355   0.1447   0.3386   4.6331   4.4942   4.2980   2.8478   1.7782   1.2861   4.2982   0.0374   0.0838
  9.778152   0.0426   0.1034   2.6372   7.2122   7.0046   2.1691   4.7723   4.0152   1.4293   7.4895   0.1358   0.3254   4.5601   4.4110   4.2111   2.7547   1.7212   1.2392   4.1512   0.0330   0.0753
  9.795880   0.0444   0.1053   2.6696   7.2473   7.0678   2.1845   4.7915   4.0403   1.4037   7.5127   0.1373   0.3284   4.5974   4.4336   4.2341   2.7724   1.7284   1.2457   4.1841   0.0331   0.0756
  9.812913   0.0462   0.1073   2.7003   7.2855   7.1307   2.2003   4.8123   4.0701   1.3795   7.5386   0.1388   0.3312   4.6307   4.4565   4.2571   2.7894   1.7360   1.2524   4.2164   0.0333   0.0759
  9.829304   0.0476   0.1088   2.7189   7.3220   7.1793   2.2121   4.8280   4.0958   1.3618   7.5595   0.1395   0.3331   4.6599   4.4735   4.2726   2.7996   1.7395   1.2548   4.2370   0.0333   0.0760
  9.845098   0.0488   0.1099   2.7266   7.3561   7.2137   2.2190   4.8381   4.1077   1.3466   7.5675   0.1397   0.3338   4.6774   4.4839   4.2817   2.8023   1.7398   1.2551   4.2428   0.0329   0.0752
  9.860338   0.0511   0.1123   2.7588   7.4020   7.2822   2.2371   4.8601   4.1481   1.3216   7.5981   0.1412   0.3367   4.7136   4.5081   4.3046   2.8194   1.7478   1.2614   4.2711   0.0332   0.0757
  9.875061   0.0534   0.1148   2.7951   7.4460   7.3552   2.2562   4.8830   4.1869   1.2963   7.6298   0.1428   0.3400   4.7557   4.5341   4.3296   2.8379   1.7559   1.2678   4.3037   0.0334   0.0761
  9.889301   0.0556   0.1171   2.8294   7.4877   7.4233   2.2739   4.9041   4.2213   1.2725   7.6584   0.1443   0.3429   4.7944   4.5582   4.3525   2.8551   1.7630   1.2736   4.3339   0.0337   0.0765
  9.903090   0.0579   0.1197   2.8709   7.5284   7.4985   2.2938   4.9280   4.2579   1.2461   7.6901   0.1462   0.3465   4.8361   4.5851   4.3791   2.8763   1.7723   1.2816   4.3711   0.0340   0.0772
  9.916454   0.0602   0.1223   2.9145   7.5644   7.5730   2.3142   4.9504   4.2990   1.2218   7.7249   0.1480   0.3502   4.8830   4.6121   4.4053   2.8985   1.7824   1.2897   4.4075   0.0345   0.0782
  9.929419   0.0616   0.1239   2.9507   7.5908   7.6345   2.3290   4.9677   4.3201   1.2026   7.7488   0.1492   0.3533   4.9313   4.6341   4.4269   2.9159   1.7880   1.2944   4.4415   0.0349   0.0788
  9.942008   0.0628   0.1252   2.9885   7.6149   7.6958   2.3432   4.9838   4.3352   1.1834   7.7701   0.1503   0.3565   4.9832   4.6558   4.4482   2.9329   1.7927   1.2985   4.4764   0.0352   0.0793
  9.954243   0.0639   0.1266   3.0288   7.6380   7.7596   2.3578   5.0000   4.3477   1.1630   7.7906   0.1515   0.3598   5.0374   4.6779   4.4699   2.9505   1.7970   1.3023   4.5124   0.0355   0.0798
  9.966142   0.0651   0.1280   3.0705   7.6608   7.8245   2.3724   5.0163   4.3565   1.1415   7.8093   0.1527   0.3631   5.0902   4.7002   4.4920   2.9681   1.8011   1.3063   4.5485   0.0357   0.0801
  9.977724   0.0674   0.1309   3.1502   7.6984   7.9297   2.4013   5.0496   4.4019   1.1111   7.8597   0.1557   0.3693   5.1644   4.7382   4.5297   3.0045   1.8155   1.3179   4.6174   0.0371   0.0826
  9.989004   0.0695   0.1336   3.2223   7.7241   8.0239   2.4256   5.0783   4.4303   1.0788   7.8951   0.1586   0.3747   5.2208   4.7720   4.5658   3.0365   1.8303   1.3324   4.6749   0.0375   0.0838
 10.000000   0.0704   0.1348   3.2683   7.7402   8.0846   2.4400   5.0939   4.4374   1.0602   7.9140   0.1600   0.3782   5.2729   4.7928   4.5870   3.0547   1.8348   1.3367   4.7142   0.0379   0.0845
 10.010724   0.0712   0.1359   3.3099   7.7553   8.1386   2.4530   5.1081   4.4446   1.0438   7.9312   0.1613   0.3813   5.3175   4.8113   4.6056   3.0709   1.8390   1.3407   4.7487   0.0383   0.0852
 10.021190   0.0719   0.1367   3.3464   7.7678   8.1852   2.4640   5.1201   4.4497   1.0297   7.9457   0.1623   0.3840   5.3576   4.8272   4.6217   3.0849   1.8425   1.3439   4.7788   0.0386   0.0857
 10.031408   0.0725   0.1375   3.3806   7.7788   8.2289   2.4743   5.1313   4.4553   1.0173   7.9602   0.1633   0.3865   5.3962   4.8423   4.6368   3.0980   1.8458   1.3469   4.8072   0.0389   0.0862
 10.041392   0.0729   0.1381   3.4127   7.7875   8.2684   2.4835   5.1414   4.4605   1.0067   7.9739   0.1641   0.3889   5.4342   4.8561   4.6506   3.1100   1.8487   1.3494   4.8339   0.0393   0.0868
 10.051152   0.0720   0.1372   3.4170   7.7808   8.2767   2.4814   5.1381   4.4321   1.0044   7.9626   0.1636   0.3894   5.4625   4.8582   4.6527   3.1086   1.8424   1.3447   4.8421   0.0389   0.0860
 10.060698   0.0722   0.1374   3.4401   7.7898   8.3059   2.4874   5.1437   4.4284   0.9978   7.9688   0.1639   0.3910   5.4967   4.8677   4.6616   3.1153   1.8417   1.3440   4.8589   0.0390   0.0860
 10.070038   0.0727   0.1382   3.4680   7.7979   8.3407   2.4963   5.1529   4.4357   0.9894   7.9811   0.1648   0.3931   5.5269   4.8798   4.6738   3.1258   1.8444   1.3463   4.8806   0.0393   0.0865
 10.079182   0.0733   0.1389   3.4956   7.8061   8.3748   2.5052   5.1623   4.4439   0.9811   7.9935   0.1656   0.3951   5.5545   4.8917   4.6859   3.1361   1.8473   1.3487   4.9018   0.0396   0.0870
 10.088136   0.0739   0.1398   3.5233   7.8147   8.4092   2.5145   5.1721   4.4534   0.9730   8.0064   0.1665   0.3971   5.5811   4.9037   4.6980   3.1466   1.8503   1.3513   4.9228   0.0399   0.0875
 10.096910   0.0745   0.1406   3.5520   7.8235   8.4446   2.5240   5.1823   4.4629   0.9645   8.0194   0.1675   0.3992   5.6077   4.9160   4.7106   3.1572   1.8534   1.3539   4.9444   0.0402   0.0880
 10.105510   0.0753   0.1416   3.5792   7.8324   8.4791   2.5335   5.1923   4.4739   0.9557   8.0323   0.1685   0.4012   5.6311   4.9278   4.7226   3.1675   1.8567   1.3567   4.9642   0.0404   0.0884
 10.113943   0.0761   0.1427   3.6079   7.8423   8.5151   2.5434   5.2032   4.4847   0.9466   8.0455   0.1695   0.4033   5.6538   4.9401   4.7353   3.1783   1.8600   1.3596   4.9857   0.0407   0.0888
 10.122216   0.0770   0.1439   3.6376   7.8539   8.5526   2.5537   5.2144   4.4955   0.9361   8.0578   0.1707   0.4053   5.6740   4.9526   4.7482   3.1890   1.8637   1.3630   5.0052   0.0408   0.0891
 10.130334   0.0792   0.1465   3.6912   7.8793   8.6147   2.5739   5.2367   4.5379   0.9194   8.0920   0.1729   0.4087   5.6982   4.9740   4.7698   3.2105   1.8759   1.3732   5.0370   0.0416   0.0906
 10.138303   0.0803   0.1479   3.7233   7.8867   8.6535   2.5856   5.2500   4.5559   0.9084   8.1095   0.1744   0.4112   5.7185   4.9876   4.7842   3.2238   1.8816   1.3782   5.0633   0.0421   0.0915
 10.146128   0.0813   0.1492   3.7528   7.8984   8.6905   2.5961   5.2620   4.5699   0.8972   8.1238   0.1755   0.4132   5.7373   4.9999   4.7969   3.2348   1.8861   1.3822   5.0837   0.0423   0.0919
